# E (eV)   ldos(E)   pdos(E)   
 -22.023  0.187E-05  0.187E-05
 -22.013  0.293E-05  0.293E-05
 -22.003  0.454E-05  0.454E-05
 -21.993  0.697E-05  0.697E-05
 -21.983  0.106E-04  0.106E-04
 -21.973  0.160E-04  0.160E-04
 -21.963  0.238E-04  0.238E-04
 -21.953  0.351E-04  0.351E-04
 -21.943  0.514E-04  0.514E-04
 -21.933  0.744E-04  0.744E-04
 -21.923  0.107E-03  0.107E-03
 -21.913  0.152E-03  0.152E-03
 -21.903  0.213E-03  0.213E-03
 -21.893  0.297E-03  0.297E-03
 -21.883  0.411E-03  0.411E-03
 -21.873  0.562E-03  0.562E-03
 -21.863  0.761E-03  0.761E-03
 -21.853  0.102E-02  0.102E-02
 -21.843  0.136E-02  0.136E-02
 -21.833  0.179E-02  0.179E-02
 -21.823  0.234E-02  0.234E-02
 -21.813  0.302E-02  0.302E-02
 -21.803  0.387E-02  0.387E-02
 -21.793  0.491E-02  0.491E-02
 -21.783  0.618E-02  0.618E-02
 -21.773  0.770E-02  0.770E-02
 -21.763  0.951E-02  0.951E-02
 -21.753  0.116E-01  0.116E-01
 -21.743  0.141E-01  0.141E-01
 -21.733  0.170E-01  0.170E-01
 -21.723  0.202E-01  0.202E-01
 -21.713  0.238E-01  0.238E-01
 -21.703  0.279E-01  0.279E-01
 -21.693  0.323E-01  0.323E-01
 -21.683  0.371E-01  0.371E-01
 -21.673  0.423E-01  0.423E-01
 -21.663  0.477E-01  0.477E-01
 -21.653  0.534E-01  0.534E-01
 -21.643  0.593E-01  0.593E-01
 -21.633  0.654E-01  0.654E-01
 -21.623  0.714E-01  0.714E-01
 -21.613  0.775E-01  0.775E-01
 -21.603  0.835E-01  0.835E-01
 -21.593  0.893E-01  0.893E-01
 -21.583  0.949E-01  0.949E-01
 -21.573  0.100E+00  0.100E+00
 -21.563  0.105E+00  0.105E+00
 -21.553  0.110E+00  0.110E+00
 -21.543  0.115E+00  0.115E+00
 -21.533  0.119E+00  0.119E+00
 -21.523  0.123E+00  0.123E+00
 -21.513  0.126E+00  0.126E+00
 -21.503  0.130E+00  0.130E+00
 -21.493  0.133E+00  0.133E+00
 -21.483  0.136E+00  0.136E+00
 -21.473  0.139E+00  0.139E+00
 -21.463  0.142E+00  0.142E+00
 -21.453  0.144E+00  0.144E+00
 -21.443  0.146E+00  0.146E+00
 -21.433  0.148E+00  0.148E+00
 -21.423  0.150E+00  0.150E+00
 -21.413  0.151E+00  0.151E+00
 -21.403  0.152E+00  0.152E+00
 -21.393  0.152E+00  0.152E+00
 -21.383  0.151E+00  0.151E+00
 -21.373  0.150E+00  0.150E+00
 -21.363  0.149E+00  0.149E+00
 -21.353  0.147E+00  0.147E+00
 -21.343  0.144E+00  0.144E+00
 -21.333  0.141E+00  0.141E+00
 -21.323  0.138E+00  0.138E+00
 -21.313  0.135E+00  0.135E+00
 -21.303  0.132E+00  0.132E+00
 -21.293  0.130E+00  0.130E+00
 -21.283  0.127E+00  0.127E+00
 -21.273  0.125E+00  0.125E+00
 -21.263  0.124E+00  0.124E+00
 -21.253  0.124E+00  0.124E+00
 -21.243  0.124E+00  0.124E+00
 -21.233  0.125E+00  0.125E+00
 -21.223  0.127E+00  0.127E+00
 -21.213  0.130E+00  0.130E+00
 -21.203  0.133E+00  0.133E+00
 -21.193  0.136E+00  0.136E+00
 -21.183  0.140E+00  0.140E+00
 -21.173  0.144E+00  0.144E+00
 -21.163  0.148E+00  0.148E+00
 -21.153  0.152E+00  0.152E+00
 -21.143  0.155E+00  0.155E+00
 -21.133  0.157E+00  0.157E+00
 -21.123  0.159E+00  0.159E+00
 -21.113  0.160E+00  0.160E+00
 -21.103  0.161E+00  0.161E+00
 -21.093  0.160E+00  0.160E+00
 -21.083  0.159E+00  0.159E+00
 -21.073  0.156E+00  0.156E+00
 -21.063  0.153E+00  0.153E+00
 -21.053  0.150E+00  0.150E+00
 -21.043  0.145E+00  0.145E+00
 -21.033  0.141E+00  0.141E+00
 -21.023  0.136E+00  0.136E+00
 -21.013  0.131E+00  0.131E+00
 -21.003  0.125E+00  0.125E+00
 -20.993  0.120E+00  0.120E+00
 -20.983  0.115E+00  0.115E+00
 -20.973  0.110E+00  0.110E+00
 -20.963  0.106E+00  0.106E+00
 -20.953  0.102E+00  0.102E+00
 -20.943  0.981E-01  0.981E-01
 -20.933  0.954E-01  0.954E-01
 -20.923  0.935E-01  0.935E-01
 -20.913  0.925E-01  0.925E-01
 -20.903  0.924E-01  0.924E-01
 -20.893  0.934E-01  0.934E-01
 -20.883  0.953E-01  0.953E-01
 -20.873  0.983E-01  0.983E-01
 -20.863  0.102E+00  0.102E+00
 -20.853  0.107E+00  0.107E+00
 -20.843  0.113E+00  0.113E+00
 -20.833  0.119E+00  0.119E+00
 -20.823  0.126E+00  0.126E+00
 -20.813  0.133E+00  0.133E+00
 -20.803  0.140E+00  0.140E+00
 -20.793  0.147E+00  0.147E+00
 -20.783  0.153E+00  0.153E+00
 -20.773  0.159E+00  0.159E+00
 -20.763  0.164E+00  0.164E+00
 -20.753  0.168E+00  0.168E+00
 -20.743  0.171E+00  0.171E+00
 -20.733  0.173E+00  0.173E+00
 -20.723  0.173E+00  0.173E+00
 -20.713  0.172E+00  0.172E+00
 -20.703  0.170E+00  0.170E+00
 -20.693  0.167E+00  0.167E+00
 -20.683  0.162E+00  0.162E+00
 -20.673  0.157E+00  0.157E+00
 -20.663  0.151E+00  0.151E+00
 -20.653  0.144E+00  0.144E+00
 -20.643  0.137E+00  0.137E+00
 -20.633  0.130E+00  0.130E+00
 -20.623  0.123E+00  0.123E+00
 -20.613  0.117E+00  0.117E+00
 -20.603  0.111E+00  0.111E+00
 -20.593  0.105E+00  0.105E+00
 -20.583  0.999E-01  0.999E-01
 -20.573  0.955E-01  0.955E-01
 -20.563  0.917E-01  0.917E-01
 -20.553  0.885E-01  0.885E-01
 -20.543  0.859E-01  0.859E-01
 -20.533  0.838E-01  0.838E-01
 -20.523  0.822E-01  0.822E-01
 -20.513  0.810E-01  0.810E-01
 -20.503  0.803E-01  0.803E-01
 -20.493  0.799E-01  0.799E-01
 -20.483  0.799E-01  0.799E-01
 -20.473  0.802E-01  0.802E-01
 -20.463  0.809E-01  0.809E-01
 -20.453  0.820E-01  0.820E-01
 -20.443  0.835E-01  0.835E-01
 -20.433  0.855E-01  0.855E-01
 -20.423  0.880E-01  0.880E-01
 -20.413  0.910E-01  0.910E-01
 -20.403  0.945E-01  0.945E-01
 -20.393  0.986E-01  0.986E-01
 -20.383  0.103E+00  0.103E+00
 -20.373  0.108E+00  0.108E+00
 -20.363  0.113E+00  0.113E+00
 -20.353  0.119E+00  0.119E+00
 -20.343  0.125E+00  0.125E+00
 -20.333  0.131E+00  0.131E+00
 -20.323  0.136E+00  0.136E+00
 -20.313  0.142E+00  0.142E+00
 -20.303  0.147E+00  0.147E+00
 -20.293  0.152E+00  0.152E+00
 -20.283  0.157E+00  0.157E+00
 -20.273  0.160E+00  0.160E+00
 -20.263  0.164E+00  0.164E+00
 -20.253  0.166E+00  0.166E+00
 -20.243  0.168E+00  0.168E+00
 -20.233  0.169E+00  0.169E+00
 -20.223  0.169E+00  0.169E+00
 -20.213  0.168E+00  0.168E+00
 -20.203  0.167E+00  0.167E+00
 -20.193  0.165E+00  0.165E+00
 -20.183  0.162E+00  0.162E+00
 -20.173  0.158E+00  0.158E+00
 -20.163  0.154E+00  0.154E+00
 -20.153  0.148E+00  0.148E+00
 -20.143  0.142E+00  0.142E+00
 -20.133  0.136E+00  0.136E+00
 -20.123  0.129E+00  0.129E+00
 -20.113  0.122E+00  0.122E+00
 -20.103  0.115E+00  0.115E+00
 -20.093  0.107E+00  0.107E+00
 -20.083  0.995E-01  0.995E-01
 -20.073  0.922E-01  0.922E-01
 -20.063  0.852E-01  0.852E-01
 -20.053  0.787E-01  0.787E-01
 -20.043  0.729E-01  0.729E-01
 -20.033  0.677E-01  0.677E-01
 -20.023  0.633E-01  0.633E-01
 -20.013  0.598E-01  0.598E-01
 -20.003  0.571E-01  0.571E-01
 -19.993  0.553E-01  0.553E-01
 -19.983  0.544E-01  0.544E-01
 -19.973  0.543E-01  0.543E-01
 -19.963  0.550E-01  0.550E-01
 -19.953  0.564E-01  0.564E-01
 -19.943  0.584E-01  0.584E-01
 -19.933  0.610E-01  0.610E-01
 -19.923  0.640E-01  0.640E-01
 -19.913  0.674E-01  0.674E-01
 -19.903  0.712E-01  0.712E-01
 -19.893  0.752E-01  0.752E-01
 -19.883  0.795E-01  0.795E-01
 -19.873  0.839E-01  0.839E-01
 -19.863  0.886E-01  0.886E-01
 -19.853  0.934E-01  0.934E-01
 -19.843  0.983E-01  0.983E-01
 -19.833  0.103E+00  0.103E+00
 -19.823  0.109E+00  0.109E+00
 -19.813  0.114E+00  0.114E+00
 -19.803  0.119E+00  0.119E+00
 -19.793  0.125E+00  0.125E+00
 -19.783  0.130E+00  0.130E+00
 -19.773  0.135E+00  0.135E+00
 -19.763  0.140E+00  0.140E+00
 -19.753  0.144E+00  0.144E+00
 -19.743  0.148E+00  0.148E+00
 -19.733  0.152E+00  0.152E+00
 -19.723  0.154E+00  0.154E+00
 -19.713  0.156E+00  0.156E+00
 -19.703  0.157E+00  0.157E+00
 -19.693  0.158E+00  0.158E+00
 -19.683  0.157E+00  0.157E+00
 -19.673  0.156E+00  0.156E+00
 -19.663  0.154E+00  0.154E+00
 -19.653  0.151E+00  0.151E+00
 -19.643  0.148E+00  0.148E+00
 -19.633  0.144E+00  0.144E+00
 -19.623  0.141E+00  0.141E+00
 -19.613  0.137E+00  0.137E+00
 -19.603  0.133E+00  0.133E+00
 -19.593  0.130E+00  0.130E+00
 -19.583  0.127E+00  0.127E+00
 -19.573  0.125E+00  0.125E+00
 -19.563  0.122E+00  0.122E+00
 -19.553  0.121E+00  0.121E+00
 -19.543  0.119E+00  0.119E+00
 -19.533  0.118E+00  0.118E+00
 -19.523  0.117E+00  0.117E+00
 -19.513  0.117E+00  0.117E+00
 -19.503  0.116E+00  0.116E+00
 -19.493  0.115E+00  0.115E+00
 -19.483  0.113E+00  0.113E+00
 -19.473  0.111E+00  0.111E+00
 -19.463  0.109E+00  0.109E+00
 -19.453  0.106E+00  0.106E+00
 -19.443  0.102E+00  0.102E+00
 -19.433  0.980E-01  0.980E-01
 -19.423  0.932E-01  0.932E-01
 -19.413  0.879E-01  0.879E-01
 -19.403  0.823E-01  0.823E-01
 -19.393  0.765E-01  0.765E-01
 -19.383  0.705E-01  0.705E-01
 -19.373  0.646E-01  0.646E-01
 -19.363  0.589E-01  0.589E-01
 -19.353  0.535E-01  0.535E-01
 -19.343  0.486E-01  0.486E-01
 -19.333  0.444E-01  0.444E-01
 -19.323  0.408E-01  0.408E-01
 -19.313  0.381E-01  0.381E-01
 -19.303  0.362E-01  0.362E-01
 -19.293  0.353E-01  0.353E-01
 -19.283  0.354E-01  0.354E-01
 -19.273  0.364E-01  0.364E-01
 -19.263  0.385E-01  0.385E-01
 -19.253  0.415E-01  0.415E-01
 -19.243  0.455E-01  0.455E-01
 -19.233  0.505E-01  0.505E-01
 -19.223  0.562E-01  0.562E-01
 -19.213  0.627E-01  0.627E-01
 -19.203  0.699E-01  0.699E-01
 -19.193  0.776E-01  0.776E-01
 -19.183  0.857E-01  0.857E-01
 -19.173  0.940E-01  0.940E-01
 -19.163  0.103E+00  0.103E+00
 -19.153  0.111E+00  0.111E+00
 -19.143  0.119E+00  0.119E+00
 -19.133  0.127E+00  0.127E+00
 -19.123  0.135E+00  0.135E+00
 -19.113  0.142E+00  0.142E+00
 -19.103  0.148E+00  0.148E+00
 -19.093  0.154E+00  0.154E+00
 -19.083  0.158E+00  0.158E+00
 -19.073  0.162E+00  0.162E+00
 -19.063  0.165E+00  0.165E+00
 -19.053  0.168E+00  0.168E+00
 -19.043  0.169E+00  0.169E+00
 -19.033  0.169E+00  0.169E+00
 -19.023  0.169E+00  0.169E+00
 -19.013  0.168E+00  0.168E+00
 -19.003  0.167E+00  0.167E+00
 -18.993  0.164E+00  0.164E+00
 -18.983  0.161E+00  0.161E+00
 -18.973  0.158E+00  0.158E+00
 -18.963  0.154E+00  0.154E+00
 -18.953  0.150E+00  0.150E+00
 -18.943  0.145E+00  0.145E+00
 -18.933  0.139E+00  0.139E+00
 -18.923  0.134E+00  0.134E+00
 -18.913  0.128E+00  0.128E+00
 -18.903  0.122E+00  0.122E+00
 -18.893  0.115E+00  0.115E+00
 -18.883  0.109E+00  0.109E+00
 -18.873  0.103E+00  0.103E+00
 -18.863  0.972E-01  0.972E-01
 -18.853  0.916E-01  0.916E-01
 -18.843  0.865E-01  0.865E-01
 -18.833  0.820E-01  0.820E-01
 -18.823  0.783E-01  0.783E-01
 -18.813  0.753E-01  0.753E-01
 -18.803  0.732E-01  0.732E-01
 -18.793  0.719E-01  0.719E-01
 -18.783  0.716E-01  0.716E-01
 -18.773  0.720E-01  0.720E-01
 -18.763  0.732E-01  0.732E-01
 -18.753  0.750E-01  0.750E-01
 -18.743  0.773E-01  0.773E-01
 -18.733  0.799E-01  0.799E-01
 -18.723  0.827E-01  0.827E-01
 -18.713  0.855E-01  0.855E-01
 -18.703  0.881E-01  0.881E-01
 -18.693  0.903E-01  0.903E-01
 -18.683  0.920E-01  0.920E-01
 -18.673  0.931E-01  0.931E-01
 -18.663  0.934E-01  0.934E-01
 -18.653  0.930E-01  0.930E-01
 -18.643  0.917E-01  0.917E-01
 -18.633  0.896E-01  0.896E-01
 -18.623  0.867E-01  0.867E-01
 -18.613  0.831E-01  0.831E-01
 -18.603  0.790E-01  0.790E-01
 -18.593  0.744E-01  0.744E-01
 -18.583  0.695E-01  0.695E-01
 -18.573  0.644E-01  0.644E-01
 -18.563  0.594E-01  0.594E-01
 -18.553  0.546E-01  0.546E-01
 -18.543  0.502E-01  0.502E-01
 -18.533  0.462E-01  0.462E-01
 -18.523  0.429E-01  0.429E-01
 -18.513  0.403E-01  0.403E-01
 -18.503  0.387E-01  0.387E-01
 -18.493  0.379E-01  0.379E-01
 -18.483  0.382E-01  0.382E-01
 -18.473  0.396E-01  0.396E-01
 -18.463  0.421E-01  0.421E-01
 -18.453  0.456E-01  0.456E-01
 -18.443  0.503E-01  0.503E-01
 -18.433  0.560E-01  0.560E-01
 -18.423  0.627E-01  0.627E-01
 -18.413  0.703E-01  0.703E-01
 -18.403  0.787E-01  0.787E-01
 -18.393  0.877E-01  0.877E-01
 -18.383  0.972E-01  0.972E-01
 -18.373  0.107E+00  0.107E+00
 -18.363  0.117E+00  0.117E+00
 -18.353  0.127E+00  0.127E+00
 -18.343  0.136E+00  0.136E+00
 -18.333  0.145E+00  0.145E+00
 -18.323  0.153E+00  0.153E+00
 -18.313  0.160E+00  0.160E+00
 -18.303  0.166E+00  0.166E+00
 -18.293  0.171E+00  0.171E+00
 -18.283  0.175E+00  0.175E+00
 -18.273  0.177E+00  0.177E+00
 -18.263  0.178E+00  0.178E+00
 -18.253  0.177E+00  0.177E+00
 -18.243  0.176E+00  0.176E+00
 -18.233  0.173E+00  0.173E+00
 -18.223  0.170E+00  0.170E+00
 -18.213  0.165E+00  0.165E+00
 -18.203  0.161E+00  0.161E+00
 -18.193  0.156E+00  0.156E+00
 -18.183  0.151E+00  0.151E+00
 -18.173  0.146E+00  0.146E+00
 -18.163  0.141E+00  0.141E+00
 -18.153  0.136E+00  0.136E+00
 -18.143  0.132E+00  0.132E+00
 -18.133  0.128E+00  0.128E+00
 -18.123  0.125E+00  0.125E+00
 -18.113  0.121E+00  0.121E+00
 -18.103  0.118E+00  0.118E+00
 -18.093  0.115E+00  0.115E+00
 -18.083  0.112E+00  0.112E+00
 -18.073  0.108E+00  0.108E+00
 -18.063  0.105E+00  0.105E+00
 -18.053  0.101E+00  0.101E+00
 -18.043  0.966E-01  0.966E-01
 -18.033  0.922E-01  0.922E-01
 -18.023  0.874E-01  0.874E-01
 -18.013  0.825E-01  0.825E-01
 -18.003  0.774E-01  0.774E-01
 -17.993  0.723E-01  0.723E-01
 -17.983  0.672E-01  0.672E-01
 -17.973  0.624E-01  0.624E-01
 -17.963  0.578E-01  0.578E-01
 -17.953  0.538E-01  0.538E-01
 -17.943  0.503E-01  0.503E-01
 -17.933  0.475E-01  0.475E-01
 -17.923  0.454E-01  0.454E-01
 -17.913  0.442E-01  0.442E-01
 -17.903  0.438E-01  0.438E-01
 -17.893  0.442E-01  0.442E-01
 -17.883  0.455E-01  0.455E-01
 -17.873  0.476E-01  0.476E-01
 -17.863  0.503E-01  0.503E-01
 -17.853  0.537E-01  0.537E-01
 -17.843  0.575E-01  0.575E-01
 -17.833  0.616E-01  0.616E-01
 -17.823  0.660E-01  0.660E-01
 -17.813  0.703E-01  0.703E-01
 -17.803  0.745E-01  0.745E-01
 -17.793  0.784E-01  0.784E-01
 -17.783  0.819E-01  0.819E-01
 -17.773  0.848E-01  0.848E-01
 -17.763  0.870E-01  0.870E-01
 -17.753  0.885E-01  0.885E-01
 -17.743  0.893E-01  0.893E-01
 -17.733  0.893E-01  0.893E-01
 -17.723  0.886E-01  0.886E-01
 -17.713  0.872E-01  0.872E-01
 -17.703  0.853E-01  0.853E-01
 -17.693  0.830E-01  0.830E-01
 -17.683  0.805E-01  0.805E-01
 -17.673  0.779E-01  0.779E-01
 -17.663  0.754E-01  0.754E-01
 -17.653  0.732E-01  0.732E-01
 -17.643  0.713E-01  0.713E-01
 -17.633  0.700E-01  0.700E-01
 -17.623  0.694E-01  0.694E-01
 -17.613  0.696E-01  0.696E-01
 -17.603  0.706E-01  0.706E-01
 -17.593  0.724E-01  0.724E-01
 -17.583  0.750E-01  0.750E-01
 -17.573  0.785E-01  0.785E-01
 -17.563  0.827E-01  0.827E-01
 -17.553  0.876E-01  0.876E-01
 -17.543  0.930E-01  0.930E-01
 -17.533  0.989E-01  0.989E-01
 -17.523  0.105E+00  0.105E+00
 -17.513  0.111E+00  0.111E+00
 -17.503  0.118E+00  0.118E+00
 -17.493  0.124E+00  0.124E+00
 -17.483  0.131E+00  0.131E+00
 -17.473  0.137E+00  0.137E+00
 -17.463  0.142E+00  0.142E+00
 -17.453  0.148E+00  0.148E+00
 -17.443  0.152E+00  0.152E+00
 -17.433  0.156E+00  0.156E+00
 -17.423  0.160E+00  0.160E+00
 -17.413  0.163E+00  0.163E+00
 -17.403  0.165E+00  0.165E+00
 -17.393  0.166E+00  0.166E+00
 -17.383  0.166E+00  0.166E+00
 -17.373  0.166E+00  0.166E+00
 -17.363  0.165E+00  0.165E+00
 -17.353  0.163E+00  0.163E+00
 -17.343  0.160E+00  0.160E+00
 -17.333  0.157E+00  0.157E+00
 -17.323  0.153E+00  0.153E+00
 -17.313  0.149E+00  0.149E+00
 -17.303  0.144E+00  0.144E+00
 -17.293  0.139E+00  0.139E+00
 -17.283  0.135E+00  0.135E+00
 -17.273  0.130E+00  0.130E+00
 -17.263  0.126E+00  0.126E+00
 -17.253  0.121E+00  0.121E+00
 -17.243  0.118E+00  0.118E+00
 -17.233  0.115E+00  0.115E+00
 -17.223  0.112E+00  0.112E+00
 -17.213  0.109E+00  0.109E+00
 -17.203  0.108E+00  0.108E+00
 -17.193  0.106E+00  0.106E+00
 -17.183  0.105E+00  0.105E+00
 -17.173  0.104E+00  0.104E+00
 -17.163  0.103E+00  0.103E+00
 -17.153  0.102E+00  0.102E+00
 -17.143  0.100E+00  0.100E+00
 -17.133  0.984E-01  0.984E-01
 -17.123  0.963E-01  0.963E-01
 -17.113  0.938E-01  0.938E-01
 -17.103  0.908E-01  0.908E-01
 -17.093  0.875E-01  0.875E-01
 -17.083  0.838E-01  0.838E-01
 -17.073  0.798E-01  0.798E-01
 -17.063  0.756E-01  0.756E-01
 -17.053  0.715E-01  0.715E-01
 -17.043  0.674E-01  0.674E-01
 -17.033  0.636E-01  0.636E-01
 -17.023  0.602E-01  0.602E-01
 -17.013  0.573E-01  0.573E-01
 -17.003  0.550E-01  0.550E-01
 -16.993  0.534E-01  0.534E-01
 -16.983  0.527E-01  0.527E-01
 -16.973  0.527E-01  0.527E-01
 -16.963  0.537E-01  0.537E-01
 -16.953  0.554E-01  0.554E-01
 -16.943  0.578E-01  0.578E-01
 -16.933  0.610E-01  0.610E-01
 -16.923  0.646E-01  0.646E-01
 -16.913  0.687E-01  0.687E-01
 -16.903  0.731E-01  0.731E-01
 -16.893  0.776E-01  0.776E-01
 -16.883  0.821E-01  0.821E-01
 -16.873  0.864E-01  0.864E-01
 -16.863  0.904E-01  0.904E-01
 -16.853  0.940E-01  0.940E-01
 -16.843  0.972E-01  0.972E-01
 -16.833  0.998E-01  0.998E-01
 -16.823  0.102E+00  0.102E+00
 -16.813  0.103E+00  0.103E+00
 -16.803  0.105E+00  0.105E+00
 -16.793  0.105E+00  0.105E+00
 -16.783  0.106E+00  0.106E+00
 -16.773  0.107E+00  0.107E+00
 -16.763  0.107E+00  0.107E+00
 -16.753  0.108E+00  0.108E+00
 -16.743  0.109E+00  0.109E+00
 -16.733  0.111E+00  0.111E+00
 -16.723  0.113E+00  0.113E+00
 -16.713  0.116E+00  0.116E+00
 -16.703  0.120E+00  0.120E+00
 -16.693  0.124E+00  0.124E+00
 -16.683  0.129E+00  0.129E+00
 -16.673  0.135E+00  0.135E+00
 -16.663  0.141E+00  0.141E+00
 -16.653  0.148E+00  0.148E+00
 -16.643  0.155E+00  0.155E+00
 -16.633  0.162E+00  0.162E+00
 -16.623  0.170E+00  0.170E+00
 -16.613  0.177E+00  0.177E+00
 -16.603  0.184E+00  0.184E+00
 -16.593  0.191E+00  0.191E+00
 -16.583  0.197E+00  0.197E+00
 -16.573  0.202E+00  0.202E+00
 -16.563  0.207E+00  0.207E+00
 -16.553  0.210E+00  0.210E+00
 -16.543  0.213E+00  0.213E+00
 -16.533  0.215E+00  0.215E+00
 -16.523  0.216E+00  0.216E+00
 -16.513  0.215E+00  0.215E+00
 -16.503  0.213E+00  0.213E+00
 -16.493  0.211E+00  0.211E+00
 -16.483  0.206E+00  0.206E+00
 -16.473  0.201E+00  0.201E+00
 -16.463  0.195E+00  0.195E+00
 -16.453  0.188E+00  0.188E+00
 -16.443  0.179E+00  0.179E+00
 -16.433  0.170E+00  0.170E+00
 -16.423  0.160E+00  0.160E+00
 -16.413  0.149E+00  0.149E+00
 -16.403  0.138E+00  0.138E+00
 -16.393  0.127E+00  0.127E+00
 -16.383  0.116E+00  0.116E+00
 -16.373  0.105E+00  0.105E+00
 -16.363  0.937E-01  0.937E-01
 -16.353  0.831E-01  0.831E-01
 -16.343  0.730E-01  0.730E-01
 -16.333  0.635E-01  0.635E-01
 -16.323  0.548E-01  0.548E-01
 -16.313  0.468E-01  0.468E-01
 -16.303  0.395E-01  0.395E-01
 -16.293  0.331E-01  0.331E-01
 -16.283  0.274E-01  0.274E-01
 -16.273  0.225E-01  0.225E-01
 -16.263  0.183E-01  0.183E-01
 -16.253  0.147E-01  0.147E-01
 -16.243  0.118E-01  0.118E-01
 -16.233  0.934E-02  0.934E-02
 -16.223  0.737E-02  0.737E-02
 -16.213  0.581E-02  0.581E-02
 -16.203  0.461E-02  0.461E-02
 -16.193  0.372E-02  0.372E-02
 -16.183  0.311E-02  0.311E-02
 -16.173  0.274E-02  0.274E-02
 -16.163  0.259E-02  0.259E-02
 -16.153  0.265E-02  0.265E-02
 -16.143  0.289E-02  0.289E-02
 -16.133  0.333E-02  0.333E-02
 -16.123  0.395E-02  0.395E-02
 -16.113  0.478E-02  0.478E-02
 -16.103  0.581E-02  0.581E-02
 -16.093  0.705E-02  0.705E-02
 -16.083  0.852E-02  0.852E-02
 -16.073  0.102E-01  0.102E-01
 -16.063  0.122E-01  0.122E-01
 -16.053  0.143E-01  0.143E-01
 -16.043  0.167E-01  0.167E-01
 -16.033  0.193E-01  0.193E-01
 -16.023  0.221E-01  0.221E-01
 -16.013  0.251E-01  0.251E-01
 -16.003  0.282E-01  0.282E-01
 -15.993  0.315E-01  0.315E-01
 -15.983  0.348E-01  0.348E-01
 -15.973  0.381E-01  0.381E-01
 -15.963  0.414E-01  0.414E-01
 -15.953  0.447E-01  0.447E-01
 -15.943  0.480E-01  0.480E-01
 -15.933  0.511E-01  0.511E-01
 -15.923  0.542E-01  0.542E-01
 -15.913  0.571E-01  0.571E-01
 -15.903  0.600E-01  0.600E-01
 -15.893  0.628E-01  0.628E-01
 -15.883  0.655E-01  0.655E-01
 -15.873  0.681E-01  0.681E-01
 -15.863  0.707E-01  0.707E-01
 -15.853  0.733E-01  0.733E-01
 -15.843  0.757E-01  0.757E-01
 -15.833  0.781E-01  0.781E-01
 -15.823  0.804E-01  0.804E-01
 -15.813  0.825E-01  0.825E-01
 -15.803  0.844E-01  0.844E-01
 -15.793  0.860E-01  0.860E-01
 -15.783  0.872E-01  0.872E-01
 -15.773  0.881E-01  0.881E-01
 -15.763  0.884E-01  0.884E-01
 -15.753  0.882E-01  0.882E-01
 -15.743  0.874E-01  0.874E-01
 -15.733  0.860E-01  0.860E-01
 -15.723  0.840E-01  0.840E-01
 -15.713  0.814E-01  0.814E-01
 -15.703  0.782E-01  0.782E-01
 -15.693  0.744E-01  0.744E-01
 -15.683  0.702E-01  0.702E-01
 -15.673  0.657E-01  0.657E-01
 -15.663  0.609E-01  0.609E-01
 -15.653  0.560E-01  0.560E-01
 -15.643  0.510E-01  0.510E-01
 -15.633  0.461E-01  0.461E-01
 -15.623  0.413E-01  0.413E-01
 -15.613  0.368E-01  0.368E-01
 -15.603  0.326E-01  0.326E-01
 -15.593  0.288E-01  0.288E-01
