# E (eV)   ldos(E)   pdos(E)   
 -21.645  0.182E-05  0.182E-05
 -21.635  0.287E-05  0.287E-05
 -21.625  0.449E-05  0.449E-05
 -21.615  0.695E-05  0.695E-05
 -21.605  0.107E-04  0.107E-04
 -21.595  0.162E-04  0.162E-04
 -21.585  0.243E-04  0.243E-04
 -21.575  0.361E-04  0.361E-04
 -21.565  0.531E-04  0.531E-04
 -21.555  0.773E-04  0.773E-04
 -21.545  0.111E-03  0.111E-03
 -21.535  0.159E-03  0.159E-03
 -21.525  0.225E-03  0.225E-03
 -21.515  0.314E-03  0.314E-03
 -21.505  0.435E-03  0.435E-03
 -21.495  0.597E-03  0.597E-03
 -21.485  0.810E-03  0.810E-03
 -21.475  0.109E-02  0.109E-02
 -21.465  0.145E-02  0.145E-02
 -21.455  0.191E-02  0.191E-02
 -21.445  0.249E-02  0.249E-02
 -21.435  0.322E-02  0.322E-02
 -21.425  0.413E-02  0.413E-02
 -21.415  0.523E-02  0.523E-02
 -21.405  0.657E-02  0.657E-02
 -21.395  0.818E-02  0.818E-02
 -21.385  0.101E-01  0.101E-01
 -21.375  0.123E-01  0.123E-01
 -21.365  0.149E-01  0.149E-01
 -21.355  0.179E-01  0.179E-01
 -21.345  0.212E-01  0.212E-01
 -21.335  0.250E-01  0.250E-01
 -21.325  0.292E-01  0.292E-01
 -21.315  0.338E-01  0.338E-01
 -21.305  0.389E-01  0.389E-01
 -21.295  0.443E-01  0.443E-01
 -21.285  0.500E-01  0.500E-01
 -21.275  0.560E-01  0.560E-01
 -21.265  0.623E-01  0.623E-01
 -21.255  0.687E-01  0.687E-01
 -21.245  0.753E-01  0.753E-01
 -21.235  0.819E-01  0.819E-01
 -21.225  0.885E-01  0.885E-01
 -21.215  0.949E-01  0.949E-01
 -21.205  0.101E+00  0.101E+00
 -21.195  0.107E+00  0.107E+00
 -21.185  0.113E+00  0.113E+00
 -21.175  0.118E+00  0.118E+00
 -21.165  0.123E+00  0.123E+00
 -21.155  0.128E+00  0.128E+00
 -21.145  0.132E+00  0.132E+00
 -21.135  0.136E+00  0.136E+00
 -21.125  0.139E+00  0.139E+00
 -21.115  0.142E+00  0.142E+00
 -21.105  0.144E+00  0.144E+00
 -21.095  0.146E+00  0.146E+00
 -21.085  0.148E+00  0.148E+00
 -21.075  0.149E+00  0.149E+00
 -21.065  0.151E+00  0.151E+00
 -21.055  0.151E+00  0.151E+00
 -21.045  0.152E+00  0.152E+00
 -21.035  0.152E+00  0.152E+00
 -21.025  0.153E+00  0.153E+00
 -21.015  0.153E+00  0.153E+00
 -21.005  0.153E+00  0.153E+00
 -20.995  0.153E+00  0.153E+00
 -20.985  0.152E+00  0.152E+00
 -20.975  0.152E+00  0.152E+00
 -20.965  0.152E+00  0.152E+00
 -20.955  0.152E+00  0.152E+00
 -20.945  0.151E+00  0.151E+00
 -20.935  0.151E+00  0.151E+00
 -20.925  0.150E+00  0.150E+00
 -20.915  0.150E+00  0.150E+00
 -20.905  0.150E+00  0.150E+00
 -20.895  0.149E+00  0.149E+00
 -20.885  0.149E+00  0.149E+00
 -20.875  0.149E+00  0.149E+00
 -20.865  0.148E+00  0.148E+00
 -20.855  0.148E+00  0.148E+00
 -20.845  0.148E+00  0.148E+00
 -20.835  0.147E+00  0.147E+00
 -20.825  0.147E+00  0.147E+00
 -20.815  0.146E+00  0.146E+00
 -20.805  0.146E+00  0.146E+00
 -20.795  0.146E+00  0.146E+00
 -20.785  0.145E+00  0.145E+00
 -20.775  0.145E+00  0.145E+00
 -20.765  0.145E+00  0.145E+00
 -20.755  0.144E+00  0.144E+00
 -20.745  0.144E+00  0.144E+00
 -20.735  0.143E+00  0.143E+00
 -20.725  0.143E+00  0.143E+00
 -20.715  0.143E+00  0.143E+00
 -20.705  0.142E+00  0.142E+00
 -20.695  0.142E+00  0.142E+00
 -20.685  0.142E+00  0.142E+00
 -20.675  0.142E+00  0.142E+00
 -20.665  0.142E+00  0.142E+00
 -20.655  0.141E+00  0.141E+00
 -20.645  0.141E+00  0.141E+00
 -20.635  0.141E+00  0.141E+00
 -20.625  0.140E+00  0.140E+00
 -20.615  0.140E+00  0.140E+00
 -20.605  0.140E+00  0.140E+00
 -20.595  0.139E+00  0.139E+00
 -20.585  0.139E+00  0.139E+00
 -20.575  0.139E+00  0.139E+00
 -20.565  0.138E+00  0.138E+00
 -20.555  0.138E+00  0.138E+00
 -20.545  0.137E+00  0.137E+00
 -20.535  0.137E+00  0.137E+00
 -20.525  0.137E+00  0.137E+00
 -20.515  0.136E+00  0.136E+00
 -20.505  0.136E+00  0.136E+00
 -20.495  0.136E+00  0.136E+00
 -20.485  0.136E+00  0.136E+00
 -20.475  0.136E+00  0.136E+00
 -20.465  0.136E+00  0.136E+00
 -20.455  0.136E+00  0.136E+00
 -20.445  0.136E+00  0.136E+00
 -20.435  0.136E+00  0.136E+00
 -20.425  0.136E+00  0.136E+00
 -20.415  0.135E+00  0.135E+00
 -20.405  0.135E+00  0.135E+00
 -20.395  0.134E+00  0.134E+00
 -20.385  0.134E+00  0.134E+00
 -20.375  0.133E+00  0.133E+00
 -20.365  0.133E+00  0.133E+00
 -20.355  0.132E+00  0.132E+00
 -20.345  0.131E+00  0.131E+00
 -20.335  0.131E+00  0.131E+00
 -20.325  0.131E+00  0.131E+00
 -20.315  0.130E+00  0.130E+00
 -20.305  0.130E+00  0.130E+00
 -20.295  0.130E+00  0.130E+00
 -20.285  0.131E+00  0.131E+00
 -20.275  0.131E+00  0.131E+00
 -20.265  0.131E+00  0.131E+00
 -20.255  0.132E+00  0.132E+00
 -20.245  0.132E+00  0.132E+00
 -20.235  0.132E+00  0.132E+00
 -20.225  0.132E+00  0.132E+00
 -20.215  0.132E+00  0.132E+00
 -20.205  0.132E+00  0.132E+00
 -20.195  0.132E+00  0.132E+00
 -20.185  0.131E+00  0.131E+00
 -20.175  0.130E+00  0.130E+00
 -20.165  0.130E+00  0.130E+00
 -20.155  0.129E+00  0.129E+00
 -20.145  0.128E+00  0.128E+00
 -20.135  0.127E+00  0.127E+00
 -20.125  0.126E+00  0.126E+00
 -20.115  0.125E+00  0.125E+00
 -20.105  0.125E+00  0.125E+00
 -20.095  0.124E+00  0.124E+00
 -20.085  0.124E+00  0.124E+00
 -20.075  0.124E+00  0.124E+00
 -20.065  0.125E+00  0.125E+00
 -20.055  0.125E+00  0.125E+00
 -20.045  0.126E+00  0.126E+00
 -20.035  0.126E+00  0.126E+00
 -20.025  0.127E+00  0.127E+00
 -20.015  0.128E+00  0.128E+00
 -20.005  0.128E+00  0.128E+00
 -19.995  0.129E+00  0.129E+00
 -19.985  0.129E+00  0.129E+00
 -19.975  0.129E+00  0.129E+00
 -19.965  0.129E+00  0.129E+00
 -19.955  0.129E+00  0.129E+00
 -19.945  0.128E+00  0.128E+00
 -19.935  0.127E+00  0.127E+00
 -19.925  0.126E+00  0.126E+00
 -19.915  0.125E+00  0.125E+00
 -19.905  0.124E+00  0.124E+00
 -19.895  0.122E+00  0.122E+00
 -19.885  0.121E+00  0.121E+00
 -19.875  0.120E+00  0.120E+00
 -19.865  0.119E+00  0.119E+00
 -19.855  0.119E+00  0.119E+00
 -19.845  0.118E+00  0.118E+00
 -19.835  0.118E+00  0.118E+00
 -19.825  0.118E+00  0.118E+00
 -19.815  0.119E+00  0.119E+00
 -19.805  0.119E+00  0.119E+00
 -19.795  0.120E+00  0.120E+00
 -19.785  0.121E+00  0.121E+00
 -19.775  0.122E+00  0.122E+00
 -19.765  0.124E+00  0.124E+00
 -19.755  0.125E+00  0.125E+00
 -19.745  0.125E+00  0.125E+00
 -19.735  0.126E+00  0.126E+00
 -19.725  0.127E+00  0.127E+00
 -19.715  0.127E+00  0.127E+00
 -19.705  0.127E+00  0.127E+00
 -19.695  0.126E+00  0.126E+00
 -19.685  0.126E+00  0.126E+00
 -19.675  0.125E+00  0.125E+00
 -19.665  0.124E+00  0.124E+00
 -19.655  0.122E+00  0.122E+00
 -19.645  0.121E+00  0.121E+00
 -19.635  0.119E+00  0.119E+00
 -19.625  0.118E+00  0.118E+00
 -19.615  0.116E+00  0.116E+00
 -19.605  0.115E+00  0.115E+00
 -19.595  0.114E+00  0.114E+00
 -19.585  0.113E+00  0.113E+00
 -19.575  0.113E+00  0.113E+00
 -19.565  0.112E+00  0.112E+00
 -19.555  0.113E+00  0.113E+00
 -19.545  0.113E+00  0.113E+00
 -19.535  0.114E+00  0.114E+00
 -19.525  0.115E+00  0.115E+00
 -19.515  0.116E+00  0.116E+00
 -19.505  0.117E+00  0.117E+00
 -19.495  0.119E+00  0.119E+00
 -19.485  0.120E+00  0.120E+00
 -19.475  0.122E+00  0.122E+00
 -19.465  0.123E+00  0.123E+00
 -19.455  0.124E+00  0.124E+00
 -19.445  0.125E+00  0.125E+00
 -19.435  0.125E+00  0.125E+00
 -19.425  0.125E+00  0.125E+00
 -19.415  0.125E+00  0.125E+00
 -19.405  0.124E+00  0.124E+00
 -19.395  0.123E+00  0.123E+00
 -19.385  0.122E+00  0.122E+00
 -19.375  0.121E+00  0.121E+00
 -19.365  0.119E+00  0.119E+00
 -19.355  0.117E+00  0.117E+00
 -19.345  0.115E+00  0.115E+00
 -19.335  0.113E+00  0.113E+00
 -19.325  0.112E+00  0.112E+00
 -19.315  0.110E+00  0.110E+00
 -19.305  0.109E+00  0.109E+00
 -19.295  0.108E+00  0.108E+00
 -19.285  0.107E+00  0.107E+00
 -19.275  0.107E+00  0.107E+00
 -19.265  0.107E+00  0.107E+00
 -19.255  0.108E+00  0.108E+00
 -19.245  0.108E+00  0.108E+00
 -19.235  0.110E+00  0.110E+00
 -19.225  0.111E+00  0.111E+00
 -19.215  0.112E+00  0.112E+00
 -19.205  0.114E+00  0.114E+00
 -19.195  0.116E+00  0.116E+00
 -19.185  0.117E+00  0.117E+00
 -19.175  0.119E+00  0.119E+00
 -19.165  0.120E+00  0.120E+00
 -19.155  0.122E+00  0.122E+00
 -19.145  0.123E+00  0.123E+00
 -19.135  0.123E+00  0.123E+00
 -19.125  0.124E+00  0.124E+00
 -19.115  0.124E+00  0.124E+00
 -19.105  0.123E+00  0.123E+00
 -19.095  0.123E+00  0.123E+00
 -19.085  0.122E+00  0.122E+00
 -19.075  0.120E+00  0.120E+00
 -19.065  0.118E+00  0.118E+00
 -19.055  0.117E+00  0.117E+00
 -19.045  0.115E+00  0.115E+00
 -19.035  0.113E+00  0.113E+00
 -19.025  0.111E+00  0.111E+00
 -19.015  0.109E+00  0.109E+00
 -19.005  0.107E+00  0.107E+00
 -18.995  0.105E+00  0.105E+00
 -18.985  0.104E+00  0.104E+00
 -18.975  0.103E+00  0.103E+00
 -18.965  0.102E+00  0.102E+00
 -18.955  0.102E+00  0.102E+00
 -18.945  0.102E+00  0.102E+00
 -18.935  0.103E+00  0.103E+00
 -18.925  0.104E+00  0.104E+00
 -18.915  0.105E+00  0.105E+00
 -18.905  0.107E+00  0.107E+00
 -18.895  0.109E+00  0.109E+00
 -18.885  0.111E+00  0.111E+00
 -18.875  0.113E+00  0.113E+00
 -18.865  0.115E+00  0.115E+00
 -18.855  0.117E+00  0.117E+00
 -18.845  0.119E+00  0.119E+00
 -18.835  0.120E+00  0.120E+00
 -18.825  0.121E+00  0.121E+00
 -18.815  0.122E+00  0.122E+00
 -18.805  0.123E+00  0.123E+00
 -18.795  0.123E+00  0.123E+00
 -18.785  0.123E+00  0.123E+00
 -18.775  0.122E+00  0.122E+00
 -18.765  0.121E+00  0.121E+00
 -18.755  0.120E+00  0.120E+00
 -18.745  0.118E+00  0.118E+00
 -18.735  0.116E+00  0.116E+00
 -18.725  0.115E+00  0.115E+00
 -18.715  0.113E+00  0.113E+00
 -18.705  0.110E+00  0.110E+00
 -18.695  0.108E+00  0.108E+00
 -18.685  0.106E+00  0.106E+00
 -18.675  0.105E+00  0.105E+00
 -18.665  0.103E+00  0.103E+00
 -18.655  0.101E+00  0.101E+00
 -18.645  0.100E+00  0.100E+00
 -18.635  0.993E-01  0.993E-01
 -18.625  0.987E-01  0.987E-01
 -18.615  0.986E-01  0.986E-01
 -18.605  0.988E-01  0.988E-01
 -18.595  0.994E-01  0.994E-01
 -18.585  0.100E+00  0.100E+00
 -18.575  0.102E+00  0.102E+00
 -18.565  0.103E+00  0.103E+00
 -18.555  0.105E+00  0.105E+00
 -18.545  0.108E+00  0.108E+00
 -18.535  0.110E+00  0.110E+00
 -18.525  0.112E+00  0.112E+00
 -18.515  0.114E+00  0.114E+00
 -18.505  0.117E+00  0.117E+00
 -18.495  0.119E+00  0.119E+00
 -18.485  0.120E+00  0.120E+00
 -18.475  0.122E+00  0.122E+00
 -18.465  0.122E+00  0.122E+00
 -18.455  0.123E+00  0.123E+00
 -18.445  0.123E+00  0.123E+00
 -18.435  0.123E+00  0.123E+00
 -18.425  0.122E+00  0.122E+00
 -18.415  0.121E+00  0.121E+00
 -18.405  0.119E+00  0.119E+00
 -18.395  0.117E+00  0.117E+00
 -18.385  0.115E+00  0.115E+00
 -18.375  0.113E+00  0.113E+00
 -18.365  0.111E+00  0.111E+00
 -18.355  0.108E+00  0.108E+00
 -18.345  0.106E+00  0.106E+00
 -18.335  0.104E+00  0.104E+00
 -18.325  0.102E+00  0.102E+00
 -18.315  0.101E+00  0.101E+00
 -18.305  0.992E-01  0.992E-01
 -18.295  0.981E-01  0.981E-01
 -18.285  0.972E-01  0.972E-01
 -18.275  0.967E-01  0.967E-01
 -18.265  0.965E-01  0.965E-01
 -18.255  0.966E-01  0.966E-01
 -18.245  0.970E-01  0.970E-01
 -18.235  0.978E-01  0.978E-01
 -18.225  0.989E-01  0.989E-01
 -18.215  0.100E+00  0.100E+00
 -18.205  0.102E+00  0.102E+00
 -18.195  0.104E+00  0.104E+00
 -18.185  0.106E+00  0.106E+00
 -18.175  0.108E+00  0.108E+00
 -18.165  0.110E+00  0.110E+00
 -18.155  0.112E+00  0.112E+00
 -18.145  0.115E+00  0.115E+00
 -18.135  0.117E+00  0.117E+00
 -18.125  0.119E+00  0.119E+00
 -18.115  0.120E+00  0.120E+00
 -18.105  0.122E+00  0.122E+00
 -18.095  0.123E+00  0.123E+00
 -18.085  0.123E+00  0.123E+00
 -18.075  0.123E+00  0.123E+00
 -18.065  0.123E+00  0.123E+00
 -18.055  0.122E+00  0.122E+00
 -18.045  0.121E+00  0.121E+00
 -18.035  0.120E+00  0.120E+00
 -18.025  0.118E+00  0.118E+00
 -18.015  0.116E+00  0.116E+00
 -18.005  0.113E+00  0.113E+00
 -17.995  0.111E+00  0.111E+00
 -17.985  0.108E+00  0.108E+00
 -17.975  0.106E+00  0.106E+00
 -17.965  0.103E+00  0.103E+00
 -17.955  0.101E+00  0.101E+00
 -17.945  0.992E-01  0.992E-01
 -17.935  0.975E-01  0.975E-01
 -17.925  0.961E-01  0.961E-01
 -17.915  0.951E-01  0.951E-01
 -17.905  0.945E-01  0.945E-01
 -17.895  0.943E-01  0.943E-01
 -17.885  0.944E-01  0.944E-01
 -17.875  0.950E-01  0.950E-01
 -17.865  0.959E-01  0.959E-01
 -17.855  0.971E-01  0.971E-01
 -17.845  0.987E-01  0.987E-01
 -17.835  0.100E+00  0.100E+00
 -17.825  0.102E+00  0.102E+00
 -17.815  0.105E+00  0.105E+00
 -17.805  0.107E+00  0.107E+00
 -17.795  0.109E+00  0.109E+00
 -17.785  0.111E+00  0.111E+00
 -17.775  0.114E+00  0.114E+00
 -17.765  0.116E+00  0.116E+00
 -17.755  0.118E+00  0.118E+00
 -17.745  0.119E+00  0.119E+00
 -17.735  0.121E+00  0.121E+00
 -17.725  0.122E+00  0.122E+00
 -17.715  0.123E+00  0.123E+00
 -17.705  0.124E+00  0.124E+00
 -17.695  0.124E+00  0.124E+00
 -17.685  0.124E+00  0.124E+00
 -17.675  0.123E+00  0.123E+00
 -17.665  0.123E+00  0.123E+00
 -17.655  0.122E+00  0.122E+00
 -17.645  0.120E+00  0.120E+00
 -17.635  0.118E+00  0.118E+00
 -17.625  0.117E+00  0.117E+00
 -17.615  0.114E+00  0.114E+00
 -17.605  0.112E+00  0.112E+00
 -17.595  0.110E+00  0.110E+00
 -17.585  0.107E+00  0.107E+00
 -17.575  0.105E+00  0.105E+00
 -17.565  0.103E+00  0.103E+00
 -17.555  0.101E+00  0.101E+00
 -17.545  0.988E-01  0.988E-01
 -17.535  0.972E-01  0.972E-01
 -17.525  0.959E-01  0.959E-01
 -17.515  0.950E-01  0.950E-01
 -17.505  0.946E-01  0.946E-01
 -17.495  0.945E-01  0.945E-01
 -17.485  0.949E-01  0.949E-01
 -17.475  0.957E-01  0.957E-01
 -17.465  0.970E-01  0.970E-01
 -17.455  0.986E-01  0.986E-01
 -17.445  0.101E+00  0.101E+00
 -17.435  0.103E+00  0.103E+00
 -17.425  0.105E+00  0.105E+00
 -17.415  0.108E+00  0.108E+00
 -17.405  0.111E+00  0.111E+00
 -17.395  0.114E+00  0.114E+00
 -17.385  0.116E+00  0.116E+00
 -17.375  0.119E+00  0.119E+00
 -17.365  0.121E+00  0.121E+00
 -17.355  0.123E+00  0.123E+00
 -17.345  0.125E+00  0.125E+00
 -17.335  0.127E+00  0.127E+00
 -17.325  0.128E+00  0.128E+00
 -17.315  0.129E+00  0.129E+00
 -17.305  0.129E+00  0.129E+00
 -17.295  0.129E+00  0.129E+00
 -17.285  0.129E+00  0.129E+00
 -17.275  0.128E+00  0.128E+00
 -17.265  0.127E+00  0.127E+00
 -17.255  0.126E+00  0.126E+00
 -17.245  0.125E+00  0.125E+00
 -17.235  0.123E+00  0.123E+00
 -17.225  0.121E+00  0.121E+00
 -17.215  0.119E+00  0.119E+00
 -17.205  0.117E+00  0.117E+00
 -17.195  0.115E+00  0.115E+00
 -17.185  0.113E+00  0.113E+00
 -17.175  0.111E+00  0.111E+00
 -17.165  0.109E+00  0.109E+00
 -17.155  0.108E+00  0.108E+00
 -17.145  0.106E+00  0.106E+00
 -17.135  0.104E+00  0.104E+00
 -17.125  0.103E+00  0.103E+00
 -17.115  0.102E+00  0.102E+00
 -17.105  0.102E+00  0.102E+00
 -17.095  0.102E+00  0.102E+00
 -17.085  0.102E+00  0.102E+00
 -17.075  0.103E+00  0.103E+00
 -17.065  0.104E+00  0.104E+00
 -17.055  0.105E+00  0.105E+00
 -17.045  0.107E+00  0.107E+00
 -17.035  0.110E+00  0.110E+00
 -17.025  0.112E+00  0.112E+00
 -17.015  0.115E+00  0.115E+00
 -17.005  0.118E+00  0.118E+00
 -16.995  0.122E+00  0.122E+00
 -16.985  0.125E+00  0.125E+00
 -16.975  0.128E+00  0.128E+00
 -16.965  0.132E+00  0.132E+00
 -16.955  0.135E+00  0.135E+00
 -16.945  0.138E+00  0.138E+00
 -16.935  0.140E+00  0.140E+00
 -16.925  0.143E+00  0.143E+00
 -16.915  0.145E+00  0.145E+00
 -16.905  0.146E+00  0.146E+00
 -16.895  0.148E+00  0.148E+00
 -16.885  0.149E+00  0.149E+00
 -16.875  0.149E+00  0.149E+00
 -16.865  0.150E+00  0.150E+00
 -16.855  0.150E+00  0.150E+00
 -16.845  0.149E+00  0.149E+00
 -16.835  0.149E+00  0.149E+00
 -16.825  0.148E+00  0.148E+00
 -16.815  0.148E+00  0.148E+00
 -16.805  0.147E+00  0.147E+00
 -16.795  0.146E+00  0.146E+00
 -16.785  0.145E+00  0.145E+00
 -16.775  0.145E+00  0.145E+00
 -16.765  0.144E+00  0.144E+00
 -16.755  0.144E+00  0.144E+00
 -16.745  0.143E+00  0.143E+00
 -16.735  0.143E+00  0.143E+00
 -16.725  0.143E+00  0.143E+00
 -16.715  0.143E+00  0.143E+00
 -16.705  0.143E+00  0.143E+00
 -16.695  0.144E+00  0.144E+00
 -16.685  0.144E+00  0.144E+00
 -16.675  0.145E+00  0.145E+00
 -16.665  0.146E+00  0.146E+00
 -16.655  0.147E+00  0.147E+00
 -16.645  0.148E+00  0.148E+00
 -16.635  0.149E+00  0.149E+00
 -16.625  0.150E+00  0.150E+00
 -16.615  0.151E+00  0.151E+00
 -16.605  0.152E+00  0.152E+00
 -16.595  0.153E+00  0.153E+00
 -16.585  0.154E+00  0.154E+00
 -16.575  0.155E+00  0.155E+00
 -16.565  0.155E+00  0.155E+00
 -16.555  0.156E+00  0.156E+00
 -16.545  0.157E+00  0.157E+00
 -16.535  0.157E+00  0.157E+00
 -16.525  0.157E+00  0.157E+00
 -16.515  0.156E+00  0.156E+00
 -16.505  0.156E+00  0.156E+00
 -16.495  0.154E+00  0.154E+00
 -16.485  0.153E+00  0.153E+00
 -16.475  0.150E+00  0.150E+00
 -16.465  0.147E+00  0.147E+00
 -16.455  0.144E+00  0.144E+00
 -16.445  0.140E+00  0.140E+00
 -16.435  0.136E+00  0.136E+00
 -16.425  0.131E+00  0.131E+00
 -16.415  0.125E+00  0.125E+00
 -16.405  0.119E+00  0.119E+00
 -16.395  0.113E+00  0.113E+00
 -16.385  0.107E+00  0.107E+00
 -16.375  0.100E+00  0.100E+00
 -16.365  0.941E-01  0.941E-01
 -16.355  0.881E-01  0.881E-01
 -16.345  0.823E-01  0.823E-01
 -16.335  0.770E-01  0.770E-01
 -16.325  0.722E-01  0.722E-01
 -16.315  0.681E-01  0.681E-01
 -16.305  0.647E-01  0.647E-01
 -16.295  0.621E-01  0.621E-01
 -16.285  0.603E-01  0.603E-01
 -16.275  0.594E-01  0.594E-01
 -16.265  0.592E-01  0.592E-01
 -16.255  0.599E-01  0.599E-01
 -16.245  0.613E-01  0.613E-01
 -16.235  0.633E-01  0.633E-01
 -16.225  0.659E-01  0.659E-01
 -16.215  0.689E-01  0.689E-01
 -16.205  0.722E-01  0.722E-01
 -16.195  0.756E-01  0.756E-01
 -16.185  0.791E-01  0.791E-01
 -16.175  0.824E-01  0.824E-01
 -16.165  0.854E-01  0.854E-01
 -16.155  0.880E-01  0.880E-01
 -16.145  0.901E-01  0.901E-01
 -16.135  0.915E-01  0.915E-01
 -16.125  0.922E-01  0.922E-01
 -16.115  0.922E-01  0.922E-01
 -16.105  0.915E-01  0.915E-01
 -16.095  0.900E-01  0.900E-01
 -16.085  0.877E-01  0.877E-01
 -16.075  0.848E-01  0.848E-01
 -16.065  0.814E-01  0.814E-01
 -16.055  0.775E-01  0.775E-01
 -16.045  0.733E-01  0.733E-01
 -16.035  0.689E-01  0.689E-01
 -16.025  0.643E-01  0.643E-01
 -16.015  0.598E-01  0.598E-01
 -16.005  0.554E-01  0.554E-01
 -15.995  0.513E-01  0.513E-01
 -15.985  0.475E-01  0.475E-01
 -15.975  0.441E-01  0.441E-01
 -15.965  0.411E-01  0.411E-01
 -15.955  0.386E-01  0.386E-01
 -15.945  0.366E-01  0.366E-01
 -15.935  0.351E-01  0.351E-01
 -15.925  0.340E-01  0.340E-01
 -15.915  0.335E-01  0.335E-01
 -15.905  0.334E-01  0.334E-01
 -15.895  0.338E-01  0.338E-01
 -15.885  0.345E-01  0.345E-01
 -15.875  0.355E-01  0.355E-01
 -15.865  0.368E-01  0.368E-01
 -15.855  0.383E-01  0.383E-01
 -15.845  0.400E-01  0.400E-01
 -15.835  0.418E-01  0.418E-01
 -15.825  0.436E-01  0.436E-01
 -15.815  0.453E-01  0.453E-01
 -15.805  0.470E-01  0.470E-01
 -15.795  0.485E-01  0.485E-01
 -15.785  0.498E-01  0.498E-01
 -15.775  0.508E-01  0.508E-01
 -15.765  0.515E-01  0.515E-01
 -15.755  0.518E-01  0.518E-01
 -15.745  0.518E-01  0.518E-01
 -15.735  0.515E-01  0.515E-01
 -15.725  0.507E-01  0.507E-01
 -15.715  0.496E-01  0.496E-01
 -15.705  0.482E-01  0.482E-01
 -15.695  0.465E-01  0.465E-01
 -15.685  0.446E-01  0.446E-01
 -15.675  0.424E-01  0.424E-01
 -15.665  0.402E-01  0.402E-01
 -15.655  0.378E-01  0.378E-01
 -15.645  0.355E-01  0.355E-01
 -15.635  0.332E-01  0.332E-01
 -15.625  0.310E-01  0.310E-01
 -15.615  0.289E-01  0.289E-01
 -15.605  0.270E-01  0.270E-01
 -15.595  0.254E-01  0.254E-01
 -15.585  0.239E-01  0.239E-01
 -15.575  0.226E-01  0.226E-01
 -15.565  0.216E-01  0.216E-01
 -15.555  0.208E-01  0.208E-01
 -15.545  0.202E-01  0.202E-01
 -15.535  0.198E-01  0.198E-01
 -15.525  0.196E-01  0.196E-01
 -15.515  0.195E-01  0.195E-01
 -15.505  0.196E-01  0.196E-01
 -15.495  0.198E-01  0.198E-01
 -15.485  0.201E-01  0.201E-01
 -15.475  0.206E-01  0.206E-01
 -15.465  0.210E-01  0.210E-01
 -15.455  0.215E-01  0.215E-01
 -15.445  0.221E-01  0.221E-01
 -15.435  0.226E-01  0.226E-01
 -15.425  0.232E-01  0.232E-01
 -15.415  0.237E-01  0.237E-01
 -15.405  0.242E-01  0.242E-01
 -15.395  0.246E-01  0.246E-01
 -15.385  0.249E-01  0.249E-01
 -15.375  0.252E-01  0.252E-01
 -15.365  0.254E-01  0.254E-01
 -15.355  0.255E-01  0.255E-01
 -15.345  0.256E-01  0.256E-01
 -15.335  0.256E-01  0.256E-01
 -15.325  0.256E-01  0.256E-01
 -15.315  0.255E-01  0.255E-01
 -15.305  0.255E-01  0.255E-01
 -15.295  0.255E-01  0.255E-01
 -15.285  0.255E-01  0.255E-01
 -15.275  0.257E-01  0.257E-01
 -15.265  0.259E-01  0.259E-01
 -15.255  0.263E-01  0.263E-01
 -15.245  0.267E-01  0.267E-01
 -15.235  0.274E-01  0.274E-01
 -15.225  0.282E-01  0.282E-01
 -15.215  0.291E-01  0.291E-01
